DATE            GMT    WSD(kn) WDIR    GUST(kn) AT      MB      HUM     VIS
20181010	0000	12.44	58	15.36	81.5	1008	9999	9999
20181010	0100	8.55	94	14.77	80.8	1007.9	9999	9999
20181010	0200	6.03	92	13.41	80.4	1008	9999	9999
20181010	0300	9.33	95	13.02	80.1	1008	9999	9999
20181010	0400	11.08	104	17.88	80.1	1007.9	9999	9999
20181010	0500	9999	9999	9999	9999	9999	9999	9999
20181010	0600	7.78	102	12.83	79.9	1006.1	9999	9999
20181010	0700	16.52	113	22.94	79.3	1005.6	9999	9999
20181010	0800	16.13	91	23.13	77.7	1004.7	9999	9999
20181010	0900	7.58	90	13.8	76.8	1003.2	9999	9999
20181010	1000	7.39	76	17.69	76.1	1002.1	9999	9999
20181010	1100	9999	9999	9999	9999	9999	9999	9999
20181010	1200	14.58	99	27.6	76.1	999.8	9999	9999
20181010	1300	18.86	54	29.94	77	997.8	9999	9999
20181010	1400	23.33	47	33.05	76.6	995	9999	9999
20181010	1500	20.41	44	31.1	77.4	991.5	9999	9999
20181010	1600	23.91	30	41.02	77.5	985.8	9999	9999
20181010	1700	40.63	359	63.37	76.5	976	9999	9999
20181010	1800	47.62	319	66.87	75	973.5	9999	9999
20181010	1900	48.6	302	64.34	75	982.6	9999	9999
20181010	2000	42.18	290	51.12	76.1	989.2	9999	9999
20181010	2100	40.04	280	49.37	80.2	994	9999	9999
20181010	2200	40.24	284	48.01	80.2	997	9999	9999
20181010	2300	33.24	285	42.38	80.6	999.5	9999	9999
20181011	0000	33.24	292	38.68	80.4	1001.2	9999	9999
20181011	0100	32.07	288	37.32	80.6	1003	9999	9999
20181011	0200	27.99	293	33.63	80.4	1004.2	9999	9999
20181011	0300	23.33	293	27.99	80.1	1005	9999	9999
20181011	0400	22.74	294	26.44	79.9	1005.7	9999	9999
20181011	0500	23.91	289	27.6	79.7	1006.2	9999	9999
20181011	0600	16.72	294	20.8	79.2	1006.6	9999	9999
20181011	0700	18.27	290	22.16	79.9	1007.4	9999	9999
20181011	0800	20.6	281	24.49	79.9	1008.3	9999	9999
20181011	0900	19.63	281	21.77	80.1	1008.8	9999	9999
20181011	1000	16.91	294	18.86	79.3	1009.1	9999	9999
